#FORMAT      : EMSA/MAS Spectral Data File
#VERSION     : 1.0
#TITLE       : Ir-250-on-Ag-150-on-Silica-30kV
#DATE        : 25-Jul-2018
#TIME        : 07:19:42
#OWNER       : Penepma
#NPOINTS     : 1000
#NCOLUMNS    : 1
#XUNITS      : keV
#YUNITS      : counts
#DATATYPE    : Y
#XPERCHAN    : 0.0299900
#OFFSET      : 0.0
#BEAMKV      : 30
#XLABEL      : Energy [keV]
#YLABEL      : Counts
#SPECTRUM    : 
0.10 
0.10 
6040.54 
17521.35 
10535.81 
5817.49 
4770.25 
5890.13 
3663.69 
2428.43 
2501.06 
2261.70 
3196.96 
2443.36 
2312.84 
2919.29 
2519.59 
2405.53 
2298.59 
2784.55 
2830.66 
2591.09 
2731.69 
2869.93 
2799.49 
3663.85 
3376.07 
3115.01 
3301.46 
3453.97 
3311.43 
3365.44 
3866.78 
3953.69 
4044.13 
4177.99 
4095.71 
4082.20 
4273.97 
4519.14 
4282.45 
4305.60 
4669.98 
4458.81 
4655.37 
4976.07 
4929.06 
4935.42 
4974.80 
5048.85 
5153.43 
51806.75 
5134.54 
4728.45 
8847.85 
5088.63 
6235.03 
64377.18 
5203.99 
5219.99 
7611.29 
14733.34 
5212.66 
5276.68 
5162.27 
507634.90 
14207.69 
5125.66 
282049.40 
3083.71 
2476.37 
2084.42 
2164.41 
4763.67 
16669.37 
1804.32 
1891.28 
1847.06 
2338.21 
2300.01 
2222.85 
3233.57 
2290.07 
2377.05 
3541.58 
3422.51 
6193.66 
4285.73 
2985.06 
2198.26 
2287.12 
2162.70 
2169.23 
2790.50 
2279.40 
2389.12 
2644.67 
2413.65 
4025.46 
18149.12 
2188.20 
2239.72 
2659.49 
2351.21 
10079.46 
2272.46 
4333.21 
2845.19 
2229.49 
2383.94 
4153.79 
2310.08 
2478.83 
2259.46 
2549.78 
2535.45 
3242.18 
2479.09 
2386.26 
2453.02 
2081.10 
2396.91 
2287.19 
2720.82 
2184.82 
2269.52 
2474.18 
2323.15 
2407.87 
2472.14 
2529.89 
2573.01 
2460.63 
2290.28 
2429.21 
2555.21 
2543.03 
2481.98 
2222.38 
2427.11 
2354.34 
3627.47 
2430.27 
2478.09 
2321.44 
2532.70 
2287.29 
2231.53 
2287.30 
2404.76 
2574.55 
3482.45 
2212.46 
2292.55 
2342.15 
2332.27 
2229.59 
2302.60 
2271.53 
2307.04 
2360.91 
2168.72 
3589.85 
3406.73 
2568.05 
2249.84 
2236.75 
2374.18 
2200.79 
2324.08 
2252.97 
2400.27 
2278.57 
3470.59 
2361.26 
2048.55 
3430.10 
2298.79 
2246.43 
2168.49 
2182.13 
2310.95 
2146.34 
2232.70 
2025.58 
2339.30 
2183.84 
2094.24 
2206.76 
2110.51 
2022.27 
3297.74 
4608.50 
2141.27 
2085.82 
3250.19 
2112.19 
2076.95 
2059.42 
2052.03 
2037.94 
1987.27 
2055.52 
2156.80 
2021.77 
1948.31 
1961.62 
2050.95 
2179.96 
2059.97 
1984.45 
3254.08 
2122.89 
3064.92 
1922.66 
2004.49 
1983.00 
2045.01 
2114.18 
2023.41 
2068.16 
1927.84 
1946.32 
1804.54 
2048.68 
1821.66 
1983.27 
1968.77 
3041.64 
1880.82 
1935.27 
1868.96 
1914.70 
1920.40 
1825.10 
1903.46 
1847.09 
1893.67 
1720.92 
1680.70 
1677.62 
1799.37 
1865.15 
1847.76 
1779.54 
3047.52 
1692.30 
1836.96 
1716.30 
2997.97 
1862.79 
1804.96 
1986.94 
1647.68 
1712.01 
1745.43 
1805.71 
1701.53 
1885.71 
1553.95 
1728.07 
1567.36 
1598.52 
1710.23 
1699.54 
1600.16 
1677.34 
11495.23 
1641.29 
1817.94 
1650.88 
1768.49 
1672.45 
1618.65 
1610.75 
1584.66 
1622.91 
1537.56 
1623.17 
1570.08 
2844.56 
1386.24 
1700.71 
2675.10 
1548.33 
1574.97 
1683.78 
1464.72 
1602.76 
1561.01 
2616.40 
1529.41 
1537.24 
1438.50 
1556.00 
1622.25 
1525.60 
1441.53 
1554.05 
2538.94 
1540.09 
1477.39 
1528.72 
20430.66 
1545.94 
176871.20 
1516.31 
1518.89 
1294.22 
1324.66 
1482.47 
1500.87 
1371.96 
1285.98 
1290.78 
1343.15 
1290.51 
1442.79 
1359.17 
1277.65 
1356.38 
3119.76 
1299.39 
1296.30 
1283.54 
1358.74 
1212.96 
1237.14 
1269.85 
1415.07 
1261.56 
1290.65 
1143.45 
1274.70 
1407.82 
1317.33 
1214.32 
1199.29 
1273.38 
1316.60 
1277.15 
1276.86 
1308.69 
1218.58 
1326.97 
1267.58 
1133.97 
1256.35 
1295.42 
1237.28 
5296.86 
3858.17 
1267.63 
1233.15 
1255.54 
1292.06 
70629.72 
1321.80 
1215.87 
1171.83 
1021.09 
1187.41 
6016.72 
37497.25 
1243.21 
1210.69 
1219.03 
1186.51 
1057.23 
1128.44 
1462.76 
1440.96 
1299.02 
2820.11 
1062.93 
1059.12 
2346.05 
1111.40 
1100.16 
1257.12 
1055.78 
954.22 
1064.20 
1084.77 
933.75 
1014.46 
1062.22 
994.08 
1058.13 
1100.16 
1084.86 
951.96 
931.12 
1054.32 
971.35 
957.85 
1055.69 
979.77 
975.69 
1021.89 
1064.11 
1015.01 
1038.02 
2214.25 
898.32 
1335.88 
2167.14 
1022.26 
999.07 
1051.44 
980.67 
881.56 
1053.29 
891.17 
973.24 
961.43 
1053.61 
980.67 
13663.68 
894.08 
950.60 
996.44 
913.28 
955.67 
923.59 
911.40 
1010.48 
1770.58 
1502.67 
886.37 
2198.01 
831.83 
879.49 
859.02 
813.80 
851.21 
881.93 
838.08 
861.28 
808.91 
860.10 
2092.13 
865.71 
908.11 
1180.93 
965.46 
737.70 
858.55 
900.77 
877.94 
850.22 
856.29 
815.16 
826.84 
870.60 
824.86 
851.31 
913.99 
811.45 
816.25 
788.62 
874.22 
891.07 
899.68 
822.32 
780.20 
828.29 
806.92 
833.09 
818.69 
750.84 
738.79 
883.92 
791.97 
763.25 
1914.48 
845.14 
811.54 
630.08 
829.56 
813.71 
680.99 
847.77 
661.70 
879.21 
787.16 
709.61 
794.50 
757.00 
816.43 
760.99 
755.82 
795.87 
806.65 
765.52 
674.83 
804.01 
736.43 
801.57 
702.64 
660.43 
794.32 
788.71 
774.84 
758.27 
685.52 
681.89 
634.79 
659.16 
817.61 
754.55 
763.07 
660.34 
1926.62 
748.57 
706.55 
712.25 
686.69 
656.81 
697.66 
662.88 
688.24 
664.24 
671.21 
630.08 
680.81 
690.50 
722.12 
619.02 
663.78 
612.15 
799.03 
666.31 
611.68 
728.10 
686.79 
707.35 
645.84 
701.47 
599.73 
796.86 
596.10 
1872.98 
718.22 
597.47 
602.45 
590.03 
630.17 
620.20 
652.72 
611.87 
686.79 
688.15 
572.19 
656.34 
645.84 
633.52 
631.26 
712.52 
620.38 
564.85 
1766.90 
601.37 
637.33 
639.59 
604.53 
695.30 
637.33 
611.77 
625.00 
609.42 
627.63 
672.20 
574.45 
596.20 
631.07 
651.91 
635.96 
505.51 
521.09 
660.34 
543.02 
541.84 
605.70 
587.77 
579.25 
622.83 
544.20 
610.41 
555.07 
495.82 
673.47 
629.80 
492.29 
582.60 
612.15 
495.91 
586.41 
586.32 
590.22 
655.44 
582.79 
494.55 
528.25 
550.17 
587.77 
574.36 
616.76 
576.90 
505.42 
549.99 
480.24 
556.24 
598.64 
495.82 
517.65 
626.36 
521.00 
463.02 
595.92 
597.19 
524.99 
543.92 
506.50 
516.29 
518.83 
569.75 
1651.93 
591.40 
593.66 
486.22 
563.40 
535.77 
518.64 
501.52 
450.97 
533.51 
558.60 
538.03 
491.92 
454.60 
497.09 
507.96 
461.94 
484.76 
528.52 
544.20 
501.61 
454.69 
587.49 
1747.33 
511.58 
496.72 
460.85 
510.22 
483.77 
449.70 
521.09 
470.27 
499.26 
463.02 
436.48 
400.52 
552.62 
480.05 
456.86 
536.86 
502.07 
579.07 
429.32 
453.42 
487.39 
504.24 
517.37 
443.82 
449.17 
411.47 
442.64 
433.31 
440.73 
494.55 
478.88 
494.64 
389.37 
411.38 
432.85 
485.94 
456.41 
447.63 
399.06 
436.48 
422.17 
465.47 
411.20 
363.82 
473.80 
441.64 
458.22 
528.25 
478.69 
402.60 
427.33 
412.65 
445.36 
419.90 
394.87 
412.47 
464.56 
454.69 
409.84 
330.12 
461.84 
489.66 
391.72 
435.12 
309.65 
425.42 
369.89 
443.82 
448.53 
435.21 
402.86 
433.94 
413.65 
430.31 
409.84 
350.96 
423.16 
380.85 
340.99 
351.86 
379.68 
443.54 
362.74 
307.11 
417.18 
373.51 
414.64 
1110.71 
361.37 
437.65 
418.17 
391.72 
463.21 
425.88 
435.12 
386.83 
403.86 
342.26 
394.17 
362.74 
361.47 
361.47 
396.80 
379.49 
388.10 
343.44 
396.43 
386.83 
397.70 
342.26 
310.73 
321.15 
382.39 
378.50 
394.08 
351.86 
307.11 
365.09 
311.91 
371.16 
285.46 
351.77 
319.52 
349.32 
355.49 
1530.99 
332.57 
350.59 
373.51 
257.46 
302.22 
348.15 
383.11 
392.99 
369.17 
325.32 
345.61 
328.85 
320.34 
288.81 
317.98 
286.55 
297.42 
378.31 
278.03 
319.34 
356.66 
314.36 
295.16 
362.64 
330.48 
249.04 
363.73 
351.96 
276.85 
328.85 
292.98 
320.34 
309.56 
262.36 
309.56 
314.17 
314.27 
259.91 
355.30 
305.75 
238.17 
262.36 
316.80 
263.63 
332.48 
246.50 
291.25 
280.48 
270.78 
280.48 
229.65 
227.48 
276.76 
331.45 
274.57 
273.50 
277.94 
264.62 
233.46 
273.14 
278.03 
258.64 
340.99 
253.84 
215.16 
182.54 
281.65 
232.19 
235.63 
247.86 
206.97 
297.32 
258.64 
273.23 
264.71 
200.76 
227.30 
293.79 
194.59 
174.12 
274.31 
281.56 
219.87 
208.00 
218.78 
229.65 
217.51 
238.08 
316.53 
190.97 
231.91 
222.40 
188.52 
255.11 
242.88 
252.57 
256.29 
195.86 
159.63 
206.73 
204.19 
194.59 
244.15 
218.78 
176.38 
180.01 
165.60 
203.02 
228.38 
196.95 
190.88 
164.43 
195.77 
174.03 
206.55 
157.09 
199.39 
174.03 
190.88 
130.45 
176.38 
208.99 
211.44 
189.79 
158.26 
201.75 
184.90 
180.01 
147.39 
169.13 
169.13 
143.77 
183.63 
131.72 
190.97 
134.07 
167.96 
94.21 
175.20 
202.92 
105.09 
148.57 
166.69 
138.97 
93.04 
96.66 
169.23 
171.58 
134.17 
157.09 
152.19 
112.33 
151.02 
105.09 
130.45 
118.40 
152.19 
105.09 
96.66 
105.09 
94.21 
101.46 
107.53 
111.16 
105.09 
101.46 
89.41 
86.97 
82.17 
82.17 
118.40 
85.79 
119.58 
85.79 
83.34 
83.34 
72.47 
79.72 
112.33 
72.47 
57.98 
72.47 
94.21 
61.60 
76.10 
65.23 
79.72 
50.73 
72.47 
72.47 
79.72 
101.46 
43.48 
65.23 
28.99 
43.48 
61.60 
54.35 
54.35 
39.86 
39.86 
68.85 
54.35 
47.11 
28.99 
25.37 
39.86 
21.74 
43.48 
28.99 
18.12 
32.61 
10.87 
21.74 
28.99 
14.49 
18.12 
10.87 
25.37 
3.62 
18.12 
3.62 
#ENDOFDATA   : 
