#FORMAT      : EMSA/MAS Spectral Data File
#VERSION     : 1.0
#TITLE       : Ir-500-on-Ag-250-on-Silica-30kV
#DATE        : 25-Jul-2018
#TIME        : 05:56:54
#OWNER       : Penepma
#NPOINTS     : 1000
#NCOLUMNS    : 1
#XUNITS      : keV
#YUNITS      : counts
#DATATYPE    : Y
#XPERCHAN    : 0.0299500
#OFFSET      : 0.0
#BEAMKV      : 30
#XLABEL      : Energy [keV]
#YLABEL      : Counts
#SPECTRUM    : 
0.10 
13433.76 
16925.72 
8599.78 
6174.38 
5468.04 
4869.31 
3785.96 
2705.27 
2533.25 
2546.97 
3210.65 
2471.52 
2643.30 
3210.08 
2615.76 
2591.15 
2790.41 
3179.64 
3004.43 
3080.84 
2832.26 
2978.66 
3306.06 
3752.19 
3318.22 
3905.43 
3435.86 
3827.16 
3869.34 
4264.28 
3855.13 
4276.33 
4292.90 
4644.02 
4496.24 
4792.72 
4878.98 
4893.23 
4688.17 
5121.85 
5539.57 
5520.19 
5353.51 
5700.36 
5821.36 
5703.56 
5981.52 
5996.84 
6124.57 
66040.59 
6196.90 
6396.00 
9172.60 
6508.63 
6411.08 
6724.38 
6374.69 
6547.39 
6630.60 
16977.97 
6906.38 
6765.16 
6733.51 
711646.10 
6880.09 
376594.50 
12639.01 
3404.62 
2961.54 
2295.02 
2257.56 
5586.64 
18920.61 
2234.75 
2398.08 
2396.30 
2478.06 
2566.98 
3239.00 
2635.86 
2567.30 
4193.63 
2515.44 
9120.81 
2378.06 
2346.56 
3518.88 
2540.57 
2403.80 
2665.74 
2983.32 
2640.76 
2631.51 
3163.07 
2518.62 
2648.84 
3795.27 
2674.14 
2415.56 
2876.19 
3334.16 
2775.48 
3873.98 
2656.01 
2897.25 
2862.63 
2844.73 
2579.67 
3113.64 
2837.93 
3006.45 
2952.13 
2908.05 
2937.78 
3066.58 
2856.18 
3052.90 
3143.38 
2897.96 
3014.27 
2931.19 
3123.43 
3062.58 
3138.67 
2841.54 
3064.28 
3194.38 
2987.25 
3210.57 
3200.31 
3202.00 
3265.70 
3330.86 
3103.29 
3105.39 
3120.54 
3062.88 
3188.30 
3141.11 
3111.14 
3350.24 
3076.07 
3301.71 
3135.85 
3111.64 
3451.85 
3287.49 
3295.67 
3196.74 
3314.55 
3134.70 
3359.38 
3258.13 
3325.65 
3153.45 
3386.58 
3366.47 
3363.11 
3224.73 
3330.40 
3406.66 
3229.11 
3299.70 
3247.88 
3023.67 
3054.36 
3318.24 
3284.34 
3218.31 
3309.43 
3309.14 
3270.72 
3205.53 
3326.51 
3245.85 
3248.62 
3392.05 
3286.94 
3438.16 
3094.18 
3190.30 
3091.70 
3253.54 
3136.93 
3062.72 
3247.03 
3240.04 
3266.62 
3129.95 
3374.45 
3055.27 
3341.41 
3212.02 
3187.52 
3250.89 
3123.77 
3069.27 
3049.85 
3153.08 
3264.89 
3074.40 
3097.20 
2991.28 
3044.68 
3187.93 
2836.46 
2912.00 
3079.90 
3055.31 
3164.63 
2879.93 
2967.14 
2962.80 
2927.99 
2969.25 
3130.86 
3093.93 
3030.22 
2872.14 
2853.44 
2804.76 
2885.84 
3054.36 
2797.14 
2857.49 
2740.86 
2867.97 
2786.10 
2902.24 
2878.56 
2922.97 
2712.99 
2843.58 
2795.16 
2694.74 
2849.26 
2786.10 
2889.70 
2968.42 
2738.45 
2800.37 
2756.70 
2687.61 
2573.94 
2600.61 
2814.61 
2658.06 
2658.23 
2723.13 
2724.37 
2452.75 
2720.94 
2846.98 
2676.35 
2532.23 
2594.98 
2461.44 
2676.86 
2621.47 
2702.23 
2790.27 
2568.69 
2748.06 
2448.53 
2508.88 
19748.24 
2488.02 
2615.92 
2429.40 
2520.47 
2363.58 
2454.82 
2428.24 
2396.33 
2664.44 
2536.07 
2381.97 
2448.28 
2498.36 
2493.27 
2392.98 
2544.31 
2611.75 
2299.18 
2465.62 
2435.36 
2621.52 
2270.78 
2557.35 
2394.05 
2334.45 
2190.89 
2405.15 
2294.96 
2351.17 
2185.35 
2339.62 
2257.70 
2352.53 
2172.59 
2344.49 
31025.44 
2368.14 
254937.20 
2187.58 
2311.60 
2300.47 
2152.06 
2354.06 
2002.05 
2161.43 
2066.72 
2178.64 
2313.42 
2261.76 
2084.10 
2178.47 
2033.84 
2248.26 
5277.13 
1996.51 
2083.10 
2159.02 
1964.47 
1979.13 
2216.22 
1988.89 
2041.71 
2065.72 
1822.98 
2179.88 
2152.11 
1959.25 
1862.80 
2174.50 
1995.89 
1918.33 
1871.49 
2137.12 
1956.60 
2054.75 
1892.41 
1838.11 
1907.51 
1828.54 
1869.51 
2017.53 
1776.05 
8028.17 
5194.23 
1940.46 
1983.10 
1967.20 
1836.64 
99706.77 
1955.81 
1808.16 
1874.14 
1784.86 
1750.38 
9346.09 
56124.31 
1853.94 
1827.79 
1799.97 
1850.89 
1839.71 
1752.36 
2615.03 
2226.40 
1791.32 
5277.55 
1485.21 
1473.21 
1755.35 
1658.57 
1443.15 
1961.86 
1674.95 
1477.51 
1472.05 
1571.39 
1644.33 
1657.49 
1549.37 
1552.85 
1496.35 
1433.55 
1656.42 
1498.46 
1405.82 
1392.32 
1442.24 
1462.03 
1619.82 
1483.06 
1477.51 
1462.11 
1521.80 
1428.05 
1538.36 
1453.26 
1421.55 
1401.35 
2102.01 
1488.85 
1518.15 
1370.13 
1540.81 
1474.11 
1485.50 
1312.76 
1349.18 
1545.06 
1444.23 
1436.44 
18750.20 
1354.73 
1393.48 
1333.87 
1398.94 
1397.95 
1266.65 
1475.13 
1396.96 
2910.67 
2793.76 
1256.46 
3138.35 
1400.19 
1411.11 
1310.52 
1288.67 
1307.30 
1366.74 
1277.41 
1223.60 
1153.89 
1362.69 
1162.75 
1322.86 
1258.87 
1698.44 
1286.27 
1164.33 
1232.21 
1252.16 
1158.19 
1127.32 
1175.09 
1116.31 
1198.19 
1151.66 
1188.99 
1217.72 
1199.26 
1245.54 
1128.39 
1144.95 
1094.12 
1235.60 
1078.72 
1108.61 
1136.09 
1105.30 
1076.48 
1227.08 
1171.36 
1172.69 
1114.07 
1115.23 
1091.88 
1083.02 
1081.04 
1108.52 
1054.63 
1065.47 
1123.01 
1093.12 
1151.00 
1135.10 
1190.40 
1079.96 
1085.60 
965.14 
1072.18 
1041.22 
1170.48 
976.15 
1151.90 
1149.17 
1122.84 
995.93 
1152.73 
1005.87 
1111.01 
1236.85 
1010.17 
1016.88 
981.61 
1074.16 
1031.20 
1044.53 
972.67 
1078.89 
1105.13 
1016.88 
998.00 
1023.58 
1000.32 
990.47 
1056.70 
967.29 
1087.49 
980.54 
1049.99 
997.09 
1005.87 
989.31 
993.87 
984.84 
930.78 
1020.19 
1059.84 
999.33 
881.11 
1014.81 
932.11 
851.30 
1018.29 
933.01 
974.99 
945.27 
904.29 
936.33 
902.05 
889.88 
1007.03 
2020.50 
853.37 
932.93 
1036.83 
1021.35 
930.69 
933.01 
915.38 
963.81 
908.84 
920.84 
900.07 
886.65 
893.28 
945.18 
839.05 
950.56 
798.23 
955.03 
862.23 
895.43 
937.49 
916.37 
825.97 
842.36 
858.92 
911.99 
839.13 
807.01 
842.36 
838.14 
936.24 
814.96 
782.84 
888.80 
852.38 
835.91 
811.48 
757.34 
756.26 
794.84 
875.56 
869.93 
762.88 
842.36 
882.18 
846.83 
801.55 
851.30 
771.83 
761.81 
747.40 
721.00 
824.73 
821.58 
789.46 
826.88 
732.01 
735.32 
704.27 
672.48 
789.46 
883.51 
866.70 
809.24 
834.83 
772.99 
811.48 
825.97 
746.41 
777.21 
806.43 
764.04 
759.57 
697.82 
683.41 
790.45 
727.62 
767.36 
721.00 
705.51 
739.70 
725.30 
719.84 
696.65 
646.98 
726.46 
621.57 
672.40 
733.08 
800.47 
718.67 
661.30 
657.99 
622.64 
649.55 
767.27 
649.22 
771.66 
693.34 
654.68 
685.56 
655.76 
730.85 
655.93 
653.61 
661.30 
579.68 
698.89 
629.35 
627.11 
680.10 
652.53 
664.70 
706.59 
626.04 
668.01 
641.35 
587.38 
680.10 
656.92 
648.14 
640.36 
657.16 
706.59 
620.41 
611.63 
565.27 
620.49 
638.21 
613.87 
608.32 
628.27 
556.50 
662.46 
557.49 
645.82 
572.97 
623.72 
536.96 
627.36 
627.11 
616.35 
589.53 
603.02 
531.08 
617.18 
539.77 
525.62 
610.47 
589.53 
546.48 
524.54 
606.08 
548.63 
558.65 
539.53 
536.54 
544.24 
563.04 
586.22 
528.93 
583.24 
629.35 
513.36 
540.10 
611.63 
551.20 
538.69 
523.30 
541.02 
549.79 
510.05 
509.22 
524.46 
528.85 
514.85 
501.19 
575.12 
568.50 
535.47 
575.21 
455.99 
565.60 
609.40 
524.46 
487.95 
545.40 
546.48 
500.12 
444.98 
517.01 
505.58 
546.97 
485.71 
421.72 
454.83 
443.82 
495.65 
675.63 
462.53 
504.50 
457.07 
470.23 
460.38 
518.83 
494.57 
452.60 
383.06 
516.59 
497.88 
521.15 
418.41 
472.47 
480.25 
498.96 
518.83 
470.31 
432.73 
451.52 
437.11 
480.58 
486.87 
443.74 
477.18 
383.06 
479.17 
495.65 
459.22 
441.09 
386.37 
462.53 
474.70 
423.87 
387.44 
448.21 
402.92 
390.75 
431.65 
347.70 
438.27 
413.93 
395.23 
359.88 
429.42 
359.88 
422.79 
369.81 
394.07 
401.85 
411.78 
383.06 
443.74 
334.46 
369.81 
384.13 
412.86 
400.69 
377.51 
353.25 
363.19 
381.98 
377.51 
357.64 
306.89 
327.84 
322.37 
321.21 
420.56 
331.15 
357.64 
399.61 
364.26 
379.74 
344.39 
380.82 
363.19 
307.97 
404.00 
320.14 
319.06 
374.20 
336.69 
311.28 
304.66 
360.95 
278.16 
317.90 
360.95 
290.33 
321.21 
265.17 
325.44 
307.97 
304.66 
299.19 
267.15 
264.92 
302.84 
315.75 
311.28 
261.61 
261.61 
226.34 
254.98 
253.91 
311.28 
307.97 
314.51 
288.10 
311.28 
304.66 
295.88 
231.80 
301.34 
277.09 
281.48 
251.67 
258.30 
287.02 
241.74 
205.31 
258.30 
260.53 
195.38 
231.80 
245.05 
245.05 
231.80 
238.43 
284.79 
251.67 
228.49 
231.80 
225.18 
221.87 
211.93 
221.87 
254.98 
238.43 
228.49 
228.49 
231.80 
221.87 
248.36 
264.92 
192.07 
215.25 
178.82 
215.25 
200.92 
198.69 
185.44 
211.93 
231.80 
158.95 
168.89 
142.39 
158.95 
145.70 
168.89 
152.33 
202.00 
178.82 
185.44 
175.51 
139.08 
145.70 
168.89 
162.26 
195.38 
175.51 
155.64 
172.20 
145.70 
139.08 
158.95 
168.89 
132.46 
135.77 
172.20 
218.56 
225.18 
175.51 
59.61 
139.08 
122.52 
145.70 
139.08 
125.84 
122.52 
102.66 
125.84 
115.90 
115.90 
89.41 
122.52 
99.34 
142.39 
125.84 
86.10 
122.52 
109.28 
89.41 
59.61 
122.52 
105.97 
79.48 
105.97 
66.23 
76.16 
89.41 
92.72 
69.54 
96.03 
92.72 
66.23 
89.41 
92.72 
62.92 
66.23 
69.54 
39.74 
82.79 
79.48 
76.16 
62.92 
86.10 
62.92 
56.30 
66.23 
46.36 
52.98 
43.05 
72.85 
59.61 
29.80 
36.43 
56.30 
46.36 
36.43 
16.56 
36.43 
26.49 
33.11 
36.43 
29.80 
19.87 
29.80 
16.56 
29.80 
19.87 
16.56 
3.31 
13.25 
13.25 
19.87 
3.31 
9.93 
3.31 
#ENDOFDATA   : 
